A-B
Profile
Horizontal Position[um]	Height[nm]
0.000	198.335
0.020	198.551
0.039	198.767
0.059	198.983
0.078	199.199
0.098	199.415
0.117	199.631
0.137	199.847
0.157	200.063
0.176	202.962
0.196	205.861
0.215	208.760
0.235	206.255
0.254	203.751
0.274	201.247
0.294	198.742
0.313	198.815
0.333	198.889
0.352	198.962
0.372	199.035
0.391	199.108
0.411	199.182
0.431	199.255
0.450	200.103
0.470	200.951
0.489	201.799
0.509	202.647
0.528	203.496
0.548	204.344
0.568	205.192
0.587	206.040
0.607	205.276
0.626	204.512
0.646	203.748
0.665	202.619
0.685	201.490
0.705	200.361
0.724	199.233
0.744	199.446
0.763	199.660
0.783	199.874
0.802	200.088
0.822	200.302
0.841	200.516
0.861	200.729
0.881	200.878
0.900	201.027
0.920	201.175
0.939	201.324
0.959	201.473
0.978	201.621
0.998	201.770
1.018	201.918
1.037	199.594
1.057	197.268
1.076	194.944
1.096	197.124
1.115	199.305
1.135	201.486
1.155	203.667
1.174	203.224
1.194	202.781
1.213	202.338
1.233	201.895
1.252	201.452
1.272	201.009
1.292	200.566
1.311	200.099
1.331	199.632
1.350	199.166
1.370	198.699
1.389	198.232
1.409	197.765
1.429	197.299
1.448	196.832
1.468	198.015
1.487	199.198
1.507	200.382
1.526	202.010
1.546	203.638
1.566	205.266
1.585	206.895
1.605	205.940
1.624	204.986
1.644	204.031
1.663	203.077
1.683	202.122
1.703	201.168
1.722	200.213
1.742	199.137
1.761	198.060
1.781	196.984
1.800	195.907
1.820	194.831
1.840	193.754
1.859	192.678
1.879	191.601
1.898	193.864
1.918	196.127
1.937	198.390
1.957	199.780
1.977	201.170
1.996	202.560
2.016	203.950
2.035	204.205
2.055	204.459
2.074	204.714
2.094	204.969
2.114	205.224
2.133	205.478
2.153	199.264
2.172	198.823
2.192	198.382
2.211	197.942
2.231	197.501
2.250	197.060
2.270	196.620
2.290	196.179
2.309	195.739
2.329	197.705
2.348	199.672
2.368	200.789
2.387	201.906
2.407	203.023
2.427	204.141
2.446	205.258
2.466	203.119
2.485	200.980
2.505	198.841
2.524	196.702
2.544	194.563
2.564	192.424
2.583	186.263
2.603	188.334
2.622	190.404
2.642	192.475
2.661	194.546
2.681	196.616
2.701	198.687
2.720	200.758
2.740	202.517
2.759	204.276
2.779	206.035
2.798	205.626
2.818	205.218
2.838	204.809
2.857	204.400
2.877	203.991
2.896	205.605
2.916	207.218
2.935	208.831
2.955	210.444
2.975	212.057
2.994	213.670
3.014	220.922
3.033	221.460
3.053	221.999
3.072	222.538
3.092	223.076
3.112	223.615
3.131	224.154
3.151	224.692
3.170	226.717
3.190	228.743
3.209	230.768
3.229	233.686
3.249	236.604
3.268	239.523
3.288	242.441
3.307	245.360
3.327	245.358
3.346	245.357
3.366	245.356
3.386	245.354
3.405	245.353
3.425	245.352
3.444	248.725
3.464	250.062
3.483	251.400
3.503	252.738
3.523	254.075
3.542	255.413
3.562	256.751
3.581	258.088
3.601	255.854
3.620	253.619
3.640	251.385
3.659	254.250
3.679	257.115
3.699	259.980
3.718	262.845
3.738	265.710
3.757	265.179
3.777	264.649
3.796	264.118
3.816	263.588
3.836	263.057
3.855	262.527
3.875	260.193
3.894	259.823
3.914	259.452
3.933	259.082
3.953	258.712
3.973	258.341
3.992	257.971
4.012	257.601
4.031	253.562
4.051	249.524
4.070	248.134
4.090	246.744
4.110	245.354
4.129	243.964
4.149	242.574
4.168	241.184
4.188	240.471
4.207	239.758
4.227	239.046
4.247	238.333
4.266	237.620
4.286	228.997
4.305	220.375
4.325	218.929
4.344	217.483
4.364	216.037
4.384	214.591
4.403	213.145
4.423	211.699
4.442	210.252
4.462	204.807
4.481	199.361
4.501	197.264
4.521	195.167
4.540	193.070
4.560	190.973
4.579	188.876
4.599	186.779
4.618	184.245
4.638	181.710
4.658	179.176
4.677	176.642
4.697	174.107
4.716	166.630
4.736	159.152
4.755	156.140
4.775	153.129
4.795	150.117
4.814	147.106
4.834	144.094
4.853	141.083
4.873	138.071
4.892	128.350
4.912	118.628
4.932	113.508
4.951	108.387
4.971	103.267
4.990	98.146
5.010	93.026
5.029	89.411
5.049	85.796
5.068	82.181
5.088	78.566
5.108	74.951
5.127	71.336
5.147	58.075
5.166	44.814
5.186	38.412
5.205	32.010
5.225	25.608
5.245	19.206
5.264	12.804
5.284	6.402
5.303	0.000
5.323	11.369
5.342	22.737
5.362	29.461
5.382	36.185
5.401	42.908
5.421	49.632
5.440	56.356
5.460	59.841
5.479	63.327
5.499	66.812
5.519	70.297
5.538	73.782
5.558	77.268
5.577	92.487
5.597	107.706
5.616	111.557
5.636	115.407
5.656	119.257
5.675	123.107
5.695	126.957
5.714	130.807
5.734	134.658
5.753	143.278
5.773	151.898
5.793	156.521
5.812	161.143
5.832	165.766
5.851	170.388
5.871	175.011
5.890	178.012
5.910	181.012
5.930	184.013
5.949	187.013
5.969	190.014
5.988	193.014
6.008	200.223
6.027	207.432
6.047	208.719
6.067	210.006
6.086	211.294
6.106	212.581
6.125	213.868
6.145	215.155
6.164	216.442
6.184	227.385
6.204	228.573
6.223	229.761
6.243	230.950
6.262	232.138
6.282	233.326
6.301	234.514
6.321	236.888
6.341	239.262
6.360	241.635
6.380	244.009
6.399	246.383
6.419	249.186
6.438	251.989
6.458	254.792
6.477	255.636
6.497	256.479
6.517	257.323
6.536	258.166
6.556	259.010
6.575	259.853
6.595	260.697
6.614	264.736
6.634	266.299
6.654	267.862
6.673	269.424
6.693	270.987
6.712	272.550
6.732	274.113
6.751	275.057
6.771	276.000
6.791	276.945
6.810	277.889
6.830	278.832
6.849	281.364
6.869	283.895
6.888	286.427
6.908	287.103
6.928	287.780
6.947	288.456
6.967	289.132
6.986	289.809
7.006	290.485
7.025	291.162
7.045	294.388
7.065	294.196
7.084	294.003
7.104	293.811
7.123	293.619
7.143	293.427
7.162	293.235
7.182	293.274
7.202	293.314
7.221	293.354
7.241	293.393
7.260	293.433
7.280	287.843
7.299	282.253
7.319	276.662
7.339	273.827
7.358	270.992
7.378	268.156
7.397	265.321
7.417	262.485
7.436	259.650
7.456	256.814
7.476	248.744
7.495	245.468
7.515	242.192
7.534	238.915
7.554	235.639
7.573	232.363
7.593	229.087
7.613	228.515
7.632	227.943
7.652	227.372
7.671	226.800
7.691	226.228
7.710	215.413
7.730	204.597
7.750	202.942
7.769	201.287
7.789	199.632
7.808	197.977
7.828	196.322
7.847	194.667
7.867	193.012
7.886	191.356
7.906	193.623
7.926	193.671
7.945	193.719
7.965	193.767
7.984	193.815
8.004	193.863
8.023	193.911
8.043	195.046
8.063	196.181
8.082	197.316
8.102	198.451
8.121	197.580
8.141	196.710
8.160	195.840
8.180	196.156
8.200	196.473
8.219	196.789
8.239	197.105
8.258	197.421
8.278	197.738
8.297	198.054
8.317	198.370
8.337	198.840
8.356	199.310
8.376	199.779
8.395	200.249
8.415	200.719
8.434	201.189
8.454	201.658
8.474	202.483
8.493	203.309
8.513	204.134
8.532	204.959
8.552	206.413
8.571	207.867
8.591	209.321
8.611	208.673
8.630	208.026
8.650	207.378
8.669	206.730
8.689	206.082
8.708	205.434
8.728	204.786
8.748	204.139
8.767	204.545
8.787	204.952
8.806	205.359
8.826	205.765
8.845	206.172
8.865	206.578
8.885	206.985
8.904	206.632
8.924	206.278
8.943	205.925
8.963	205.571
8.982	203.465
9.002	201.358
9.022	199.252
9.041	200.135
9.061	201.018
9.080	201.901
9.100	202.784
9.119	203.667
9.139	204.551
9.159	205.433
9.178	206.316
9.198	206.405
9.217	206.493
9.237	206.582
9.256	206.670
9.276	206.758
9.295	206.847
9.315	206.935
9.335	205.029
9.354	203.123
9.374	201.217
9.393	199.311
9.413	200.210
9.432	201.110
9.452	202.009
9.472	201.887
9.491	201.766
9.511	201.644
9.530	201.523
9.550	201.401
9.569	201.280
9.589	201.158
9.609	201.037
9.628	200.655
9.648	200.274
9.667	199.893
9.687	199.512
9.706	199.131
9.726	198.749
9.746	198.368
9.765	199.165
9.785	199.962
9.804	200.760
9.824	201.557
9.843	202.973
9.863	204.389
9.883	205.805
9.902	205.805
9.922	205.805
9.941	205.805
9.961	205.805
9.980	205.805
10.000	205.805
