E-F
Profile
Horizontal Position[um]	Height[nm]
0.000	198.924
0.020	199.248
0.039	199.573
0.059	199.897
0.078	200.221
0.098	200.545
0.117	200.870
0.137	201.194
0.157	201.518
0.176	199.573
0.196	197.628
0.215	195.682
0.235	193.737
0.254	196.402
0.274	199.066
0.294	201.730
0.313	202.998
0.333	204.265
0.352	205.533
0.372	206.800
0.391	208.067
0.411	209.335
0.431	210.602
0.450	212.702
0.470	212.444
0.489	212.187
0.509	211.929
0.528	211.671
0.548	211.414
0.568	211.156
0.587	209.224
0.607	207.291
0.626	205.358
0.646	203.425
0.665	201.493
0.685	199.000
0.705	196.507
0.724	194.015
0.744	194.730
0.763	195.444
0.783	196.159
0.802	196.874
0.822	197.589
0.841	198.304
0.861	199.019
0.881	206.018
0.900	207.323
0.920	208.629
0.939	209.934
0.959	211.239
0.978	212.545
0.998	213.850
1.018	211.600
1.037	209.350
1.057	207.099
1.076	204.849
1.096	202.599
1.115	202.731
1.135	202.862
1.155	203.896
1.174	204.930
1.194	205.964
1.213	206.999
1.233	208.033
1.252	209.067
1.272	210.101
1.292	205.836
1.311	201.571
1.331	200.830
1.350	200.089
1.370	199.349
1.389	198.608
1.409	197.867
1.429	197.126
1.448	198.979
1.468	200.831
1.487	202.683
1.507	204.536
1.526	206.388
1.546	208.060
1.566	209.733
1.585	208.233
1.605	206.734
1.624	205.235
1.644	203.736
1.663	202.237
1.683	200.738
1.703	199.239
1.722	200.383
1.742	201.528
1.761	202.672
1.781	203.097
1.800	203.522
1.820	203.948
1.840	204.373
1.859	204.081
1.879	203.790
1.898	203.498
1.918	203.207
1.937	202.915
1.957	202.624
1.977	202.332
1.996	201.436
2.016	200.540
2.035	199.644
2.055	198.748
2.074	197.852
2.094	196.956
2.114	196.060
2.133	195.164
2.153	197.278
2.172	199.393
2.192	201.508
2.211	203.292
2.231	205.076
2.250	206.861
2.270	208.645
2.290	207.210
2.309	205.774
2.329	204.339
2.348	202.904
2.368	201.468
2.387	200.033
2.407	198.597
2.427	200.264
2.446	201.931
2.466	203.598
2.485	205.265
2.505	206.931
2.524	208.598
2.544	210.265
2.564	208.428
2.583	206.592
2.603	204.755
2.622	202.919
2.642	205.875
2.661	208.831
2.681	211.787
2.701	214.743
2.720	216.508
2.740	218.274
2.759	220.039
2.779	221.805
2.798	223.570
2.818	225.336
2.838	227.101
2.857	227.758
2.877	228.415
2.896	229.072
2.916	229.729
2.935	230.386
2.955	231.044
2.975	231.701
2.994	232.581
3.014	233.461
3.033	234.340
3.053	235.220
3.072	239.029
3.092	242.839
3.112	246.648
3.131	247.515
3.151	248.382
3.170	249.249
3.190	250.117
3.209	250.984
3.229	251.851
3.249	252.719
3.268	260.584
3.288	261.632
3.307	262.681
3.327	263.730
3.346	264.779
3.366	265.827
3.386	266.876
3.405	267.925
3.425	268.302
3.444	268.680
3.464	269.058
3.483	269.436
3.503	269.813
3.523	269.390
3.542	268.967
3.562	267.969
3.581	266.971
3.601	265.973
3.620	264.975
3.640	263.976
3.659	262.978
3.679	261.980
3.699	260.240
3.718	258.501
3.738	258.457
3.757	258.414
3.777	258.371
3.796	258.327
3.816	258.284
3.836	256.924
3.855	255.563
3.875	254.203
3.894	252.843
3.914	251.482
3.933	250.122
3.953	242.341
3.973	240.751
3.992	239.162
4.012	237.572
4.031	235.983
4.051	234.393
4.070	232.804
4.090	231.214
4.110	229.625
4.129	226.648
4.149	223.670
4.168	220.722
4.188	217.773
4.207	214.825
4.227	211.877
4.247	208.928
4.266	207.585
4.286	206.241
4.305	204.898
4.325	203.554
4.344	202.211
4.364	200.867
4.384	186.173
4.403	184.361
4.423	182.548
4.442	180.735
4.462	178.922
4.481	177.109
4.501	175.296
4.521	173.483
4.540	167.800
4.560	162.116
4.579	156.433
4.599	150.868
4.618	145.303
4.638	139.738
4.658	134.174
4.677	132.373
4.697	130.573
4.716	128.772
4.736	126.972
4.755	125.171
4.775	123.371
4.795	121.571
4.814	92.175
4.834	88.409
4.853	84.643
4.873	80.877
4.892	77.111
4.912	73.346
4.932	69.580
4.951	65.814
4.971	56.420
4.990	47.026
5.010	37.632
5.029	28.224
5.049	18.816
5.068	9.408
5.088	0.000
5.108	6.096
5.127	12.192
5.147	18.288
5.166	24.384
5.186	30.480
5.205	36.577
5.225	42.673
5.245	58.914
5.264	63.947
5.284	68.980
5.303	74.012
5.323	79.045
5.342	84.078
5.362	89.110
5.382	94.143
5.401	98.515
5.421	102.887
5.440	107.259
5.460	111.630
5.479	122.491
5.499	133.352
5.519	144.213
5.538	147.770
5.558	151.327
5.577	154.883
5.597	158.440
5.616	161.997
5.636	165.554
5.656	169.111
5.675	183.651
5.695	185.568
5.714	187.485
5.734	189.402
5.753	191.320
5.773	193.237
5.793	195.154
5.812	198.229
5.832	201.303
5.851	204.378
5.871	207.453
5.890	210.527
5.910	215.587
5.930	220.647
5.949	222.684
5.969	224.721
5.988	226.758
6.008	228.795
6.027	230.832
6.047	232.868
6.067	234.905
6.086	236.942
6.106	239.659
6.125	241.651
6.145	243.643
6.164	245.635
6.184	247.627
6.204	249.618
6.223	251.610
6.243	252.536
6.262	253.461
6.282	254.387
6.301	255.312
6.321	256.238
6.341	260.025
6.360	263.813
6.380	265.398
6.399	266.984
6.419	268.569
6.438	270.155
6.458	271.740
6.477	273.326
6.497	274.911
6.517	276.525
6.536	278.138
6.556	279.290
6.575	280.442
6.595	281.593
6.614	282.745
6.634	283.897
6.654	284.732
6.673	285.568
6.693	286.403
6.712	287.239
6.732	288.074
6.751	288.910
6.771	289.746
6.791	295.225
6.810	295.718
6.830	296.211
6.849	296.704
6.869	297.198
6.888	297.691
6.908	298.184
6.928	298.677
6.947	300.015
6.967	301.353
6.986	302.691
7.006	302.431
7.025	302.171
7.045	301.912
7.065	301.652
7.084	296.905
7.104	292.158
7.123	287.411
7.143	282.665
7.162	277.918
7.182	273.171
7.202	268.424
7.221	266.298
7.241	264.172
7.260	262.046
7.280	259.919
7.299	257.793
7.319	255.667
7.339	253.541
7.358	250.810
7.378	248.078
7.397	245.347
7.417	242.615
7.436	239.785
7.456	236.955
7.476	234.125
7.495	231.295
7.515	227.183
7.534	223.071
7.554	218.959
7.573	214.847
7.593	210.735
7.613	206.623
7.632	202.511
7.652	200.585
7.671	198.660
7.691	196.735
7.710	194.809
7.730	192.884
7.750	190.958
7.769	189.033
7.789	190.689
7.808	192.344
7.828	194.000
7.847	195.656
7.867	196.866
7.886	198.077
7.906	199.288
7.926	199.552
7.945	199.815
7.965	200.079
7.984	200.342
8.004	200.606
8.023	200.870
8.043	201.133
8.063	201.397
8.082	201.449
8.102	201.501
8.121	201.554
8.141	201.606
8.160	201.658
8.180	201.710
8.200	201.762
8.219	202.850
8.239	203.937
8.258	205.024
8.278	206.112
8.297	206.439
8.317	206.766
8.337	207.094
8.356	206.495
8.376	205.896
8.395	205.297
8.415	204.699
8.434	204.100
8.454	203.501
8.474	202.902
8.493	205.469
8.513	208.036
8.532	208.339
8.552	208.642
8.571	208.946
8.591	209.249
8.611	209.552
8.630	208.741
8.650	207.929
8.669	207.118
8.689	206.306
8.708	205.495
8.728	204.684
8.748	205.953
8.767	207.223
8.787	207.558
8.806	207.893
8.826	208.228
8.845	208.564
8.865	208.899
8.885	209.234
8.904	209.569
8.924	210.447
8.943	211.324
8.963	209.843
8.982	208.363
9.002	206.882
9.022	205.401
9.041	203.921
9.061	204.751
9.080	205.582
9.100	206.412
9.119	207.243
9.139	208.073
9.159	208.904
9.178	211.605
9.198	211.763
9.217	211.921
9.237	212.079
9.256	212.237
9.276	212.395
9.295	212.554
9.315	212.712
9.335	210.507
9.354	208.302
9.374	206.097
9.393	206.393
9.413	206.690
9.432	206.985
9.452	207.282
9.472	207.578
9.491	207.793
9.511	208.008
9.530	208.223
9.550	208.438
9.569	208.653
9.589	208.868
9.609	204.826
9.628	205.083
9.648	205.339
9.667	205.596
9.687	205.852
9.706	206.109
9.726	206.365
9.746	206.622
9.765	208.185
9.785	209.749
9.804	211.312
9.824	211.511
9.843	211.710
9.863	211.909
9.883	212.108
9.902	212.108
9.922	212.108
9.941	212.108
9.961	212.108
9.980	212.108
10.000	212.108
